Sample : Ni
Pre-Pulse  Slope = 6.524896E-3 +/- 4.518110E-4 Intercept = 4.724213E+0 +/- 1.099336E-3 Residue = 1.595354E-8
Heat Pulse  Slope = 9.830042E-3 +/- 6.486885E-4 Intercept = 4.702760E+0 +/- 4.895692E-3 Residue = 1.983012E-8
Post-Pulse  Slope = 6.003062E-3 +/- 3.668466E-4 Intercept = 4.743320E+0 +/- 4.602201E-3 Residue = 6.346510E-9
Sample Voltage = 7.000000E-2 Sample Voltage Uncertainty = 1.000000E-2
Sample Current = 9.977000E-1 Sample Current Uncertainty = 1.000000E-4
t(s)	T(K)	dT(K)
0.000000	4.723151	0.010000
0.111006	4.726063	0.010000
0.213012	4.724041	0.010000
0.316018	4.727662	0.010000
0.419024	4.724898	0.010000
0.521029	4.728233	0.010000
0.624035	4.726946	0.010000
0.727041	4.728087	0.010000
0.830047	4.728397	0.010000
0.933053	4.730135	0.010000
1.035059	4.731178	0.010000
1.138065	4.731693	0.010000
1.241071	4.732418	0.010000
1.343077	4.733001	0.010000
1.446083	4.733385	0.010000
1.548089	4.734654	0.010000
1.651094	4.737607	0.010000
1.754100	4.739534	0.010000
1.856106	4.736567	0.010000
1.959112	4.736722	0.010000
2.061118	4.738103	0.010000
2.164124	4.738862	0.010000
2.266129	4.736692	0.010000
2.369135	4.738179	0.010000
2.472141	4.739220	0.010000
2.574147	4.742457	0.010000
2.676153	4.742226	0.010000
2.779159	4.743269	0.010000
2.882164	4.743038	0.010000
2.985170	4.742043	0.010000
3.088176	4.743839	0.010000
3.190182	4.744032	0.010000
3.293188	4.745077	0.010000
3.396194	4.745857	0.010000
3.498200	4.746682	0.010000
3.600206	4.746763	0.010000
3.702211	4.747166	0.010000
3.804217	4.750555	0.010000
3.907223	4.752062	0.010000
4.010229	4.749067	0.010000
4.113235	4.750158	0.010000
4.215241	4.750606	0.010000
4.318247	4.750235	0.010000
4.420253	4.751700	0.010000
4.522258	4.752004	0.010000
4.624264	4.752226	0.010000
4.726270	4.753965	0.010000
4.828276	4.754785	0.010000
4.931282	4.753380	0.010000
5.033288	4.755066	0.010000
5.137294	4.754945	0.010000
5.239299	4.754960	0.010000
5.341305	4.756364	0.010000
5.444311	4.756273	0.010000
5.547317	4.756447	0.010000
5.650323	4.757450	0.010000
5.753329	4.760471	0.010000
5.856335	4.759083	0.010000
5.959341	4.765216	0.010000
6.062346	4.764382	0.010000
6.165352	4.763667	0.010000
6.268358	4.762649	0.010000
6.371364	4.764602	0.010000
6.473370	4.766540	0.010000
6.576376	4.767425	0.010000
6.679382	4.768436	0.010000
6.781388	4.768245	0.010000
6.884394	4.771654	0.010000
6.986399	4.770709	0.010000
7.088405	4.771971	0.010000
7.190411	4.772973	0.010000
7.293417	4.773700	0.010000
7.396423	4.775453	0.010000
7.498429	4.776135	0.010000
7.600435	4.776325	0.010000
7.702440	4.778550	0.010000
7.805446	4.779683	0.010000
7.908452	4.781058	0.010000
8.011458	4.780936	0.010000
8.114464	4.785313	0.010000
8.216470	4.788754	0.010000
8.318476	4.785551	0.010000
8.420482	4.785105	0.010000
8.522487	4.785922	0.010000
8.624493	4.786433	0.010000
8.726499	4.788310	0.010000
8.829505	4.787486	0.010000
8.931510	4.789605	0.010000
9.033516	4.792312	0.010000
9.136522	4.791955	0.010000
9.238528	4.794783	0.010000
9.341534	4.793059	0.010000
9.443540	4.794873	0.010000
9.545546	4.796447	0.010000
9.647552	4.795917	0.010000
9.749557	4.796815	0.010000
9.851563	4.799058	0.010000
9.953569	4.800493	0.010000
10.055575	4.801310	0.010000
10.157581	4.803360	0.010000
10.260587	4.805589	0.010000
10.363593	4.809784	0.010000
10.466599	4.804771	0.010000
10.569604	4.806369	0.010000
10.672610	4.807445	0.010000
10.774616	4.807338	0.010000
10.876622	4.808373	0.010000
10.979628	4.809750	0.010000
11.081634	4.810582	0.010000
11.183640	4.809973	0.010000
11.286645	4.811210	0.010000
11.389651	4.811902	0.010000
11.491657	4.811690	0.010000
11.593663	4.813174	0.010000
11.695669	4.813213	0.010000
11.797675	4.815028	0.010000
11.899681	4.816464	0.010000
12.002687	4.814896	0.010000
12.105692	4.816277	0.010000
12.208698	4.815908	0.010000
12.310704	4.816608	0.010000
12.412710	4.816441	0.010000
12.515716	4.817952	0.010000
12.617722	4.819230	0.010000
12.720727	4.818450	0.010000
12.823733	4.821639	0.010000
12.926739	4.820869	0.010000
13.028745	4.821934	0.010000
13.130751	4.820765	0.010000
13.233757	4.823085	0.010000
13.335763	4.823312	0.010000
13.438768	4.824792	0.010000
13.541774	4.823666	0.010000
13.643780	4.826361	0.010000
13.745786	4.825647	0.010000
13.847792	4.827580	0.010000
13.950798	4.826528	0.010000
14.053803	4.827375	0.010000
14.156810	4.827636	0.010000
14.259815	4.829774	0.010000
14.361821	4.827846	0.010000
14.463827	4.830513	0.010000
14.565833	4.830300	0.010000
14.667839	4.832636	0.010000
14.769845	4.831427	0.010000
14.872850	4.834348	0.010000
14.974856	4.833954	0.010000
15.076862	4.833764	0.010000
Sample : Ni
Pre-Pulse  Slope = 8.687283E-3 +/- 7.302200E-4 Intercept = 5.593278E+0 +/- 1.776016E-3 Residue = 4.161494E-8
Heat Pulse  Slope = 1.019415E-2 +/- 5.873268E-4 Intercept = 5.581538E+0 +/- 4.429584E-3 Residue = 1.621658E-8
Post-Pulse  Slope = 7.075730E-3 +/- 6.725581E-4 Intercept = 5.615891E+0 +/- 8.432106E-3 Residue = 2.121642E-8
Sample Voltage = 7.000000E-2 Sample Voltage Uncertainty = 1.000000E-2
Sample Current = 9.977000E-1 Sample Current Uncertainty = 1.000000E-4
t(s)	T(K)	dT(K)
0.000000	5.590974	0.010000
0.113007	5.592882	0.010000
0.215013	5.596310	0.010000
0.318018	5.594663	0.010000
0.421024	5.596134	0.010000
0.523030	5.598943	0.010000
0.626036	5.597373	0.010000
0.728042	5.598635	0.010000
0.831048	5.600248	0.010000
0.934053	5.602014	0.010000
1.036059	5.604527	0.010000
1.139065	5.600803	0.010000
1.241071	5.601252	0.010000
1.343077	5.605914	0.010000
1.445083	5.603864	0.010000
1.547089	5.604964	0.010000
1.650095	5.609745	0.010000
1.752100	5.612152	0.010000
1.854106	5.608851	0.010000
1.956112	5.607151	0.010000
2.059118	5.613365	0.010000
2.162124	5.609637	0.010000
2.265130	5.609617	0.010000
2.368135	5.616809	0.010000
2.470141	5.617705	0.010000
2.572147	5.615853	0.010000
2.675153	5.619921	0.010000
2.778159	5.620388	0.010000
2.880165	5.619863	0.010000
2.983171	5.620354	0.010000
3.085177	5.621474	0.010000
3.188182	5.621043	0.010000
3.291188	5.619722	0.010000
3.394194	5.620872	0.010000
3.497200	5.620860	0.010000
3.600206	5.624189	0.010000
3.702212	5.624783	0.010000
3.804218	5.625916	0.010000
3.907224	5.626688	0.010000
4.010230	5.626987	0.010000
4.113235	5.628860	0.010000
4.215241	5.628740	0.010000
4.317247	5.626398	0.010000
4.419253	5.629689	0.010000
4.521259	5.630081	0.010000
4.624265	5.629967	0.010000
4.726271	5.631748	0.010000
4.828277	5.629947	0.010000
4.931282	5.632809	0.010000
5.034288	5.633382	0.010000
5.136294	5.633815	0.010000
5.239300	5.634431	0.010000
5.342306	5.636911	0.010000
5.444312	5.634526	0.010000
5.546318	5.638617	0.010000
5.648324	5.637531	0.010000
5.751329	5.637815	0.010000
5.854335	5.641701	0.010000
5.957341	5.640632	0.010000
6.060347	5.644475	0.010000
6.163353	5.642009	0.010000
6.265358	5.643146	0.010000
6.367364	5.647719	0.010000
6.469370	5.647650	0.010000
6.571376	5.648964	0.010000
6.673382	5.651607	0.010000
6.776388	5.651267	0.010000
6.879394	5.651111	0.010000
6.981400	5.652113	0.010000
7.083405	5.654042	0.010000
7.186411	5.653843	0.010000
7.289417	5.657952	0.010000
7.391423	5.657231	0.010000
7.493429	5.657574	0.010000
7.596435	5.659671	0.010000
7.698441	5.660712	0.010000
7.800447	5.662522	0.010000
7.902452	5.660133	0.010000
8.005458	5.660889	0.010000
8.107464	5.661623	0.010000
8.210470	5.666525	0.010000
8.312476	5.666489	0.010000
8.414482	5.667808	0.010000
8.516487	5.667989	0.010000
8.618493	5.669259	0.010000
8.720499	5.671376	0.010000
8.822505	5.670973	0.010000
8.924510	5.673139	0.010000
9.026516	5.673800	0.010000
9.128522	5.674212	0.010000
9.230528	5.674954	0.010000
9.332534	5.678032	0.010000
9.435540	5.680582	0.010000
9.538546	5.681966	0.010000
9.640552	5.682125	0.010000
9.742558	5.679109	0.010000
9.845563	5.681611	0.010000
9.947569	5.684457	0.010000
10.050575	5.682103	0.010000
10.153581	5.688484	0.010000
10.256587	5.684844	0.010000
10.358593	5.689638	0.010000
10.460598	5.690930	0.010000
10.563604	5.689574	0.010000
10.665610	5.693454	0.010000
10.767616	5.693001	0.010000
10.869622	5.694446	0.010000
10.972628	5.691228	0.010000
11.075634	5.695406	0.010000
11.178639	5.692466	0.010000
11.281645	5.693877	0.010000
11.384652	5.695734	0.010000
11.486657	5.695338	0.010000
11.588663	5.699480	0.010000
11.691669	5.700345	0.010000
11.793675	5.700004	0.010000
11.895680	5.698996	0.010000
11.997686	5.699109	0.010000
12.099692	5.704162	0.010000
12.201698	5.704953	0.010000
12.303704	5.700845	0.010000
12.405710	5.705132	0.010000
12.507716	5.705568	0.010000
12.609722	5.706724	0.010000
12.711727	5.705558	0.010000
12.813733	5.706224	0.010000
12.916739	5.707749	0.010000
13.018745	5.708649	0.010000
13.120751	5.708329	0.010000
13.222756	5.710386	0.010000
13.324762	5.710506	0.010000
13.426768	5.709071	0.010000
13.529774	5.710773	0.010000
13.632780	5.711744	0.010000
13.735786	5.711687	0.010000
13.838792	5.712683	0.010000
13.940798	5.715980	0.010000
14.043804	5.713904	0.010000
14.145809	5.715981	0.010000
14.248815	5.716275	0.010000
14.351821	5.716424	0.010000
14.453827	5.718321	0.010000
14.555833	5.720646	0.010000
14.657839	5.720833	0.010000
14.759844	5.720414	0.010000
14.862850	5.721053	0.010000
14.965856	5.724570	0.010000
15.068862	5.722103	0.010000
Sample : Ni
Pre-Pulse  Slope = 1.036733E-2 +/- 1.077870E-3 Intercept = 6.052011E+0 +/- 2.620191E-3 Residue = 9.050503E-8
Heat Pulse  Slope = 9.084015E-3 +/- 4.664537E-3 Intercept = 6.057477E+0 +/- 3.518350E-2 Residue = 1.027930E-6
Post-Pulse  Slope = 8.096080E-3 +/- 1.232006E-3 Intercept = 6.073819E+0 +/- 1.544487E-2 Residue = 7.118894E-8
Sample Voltage = 7.000000E-2 Sample Voltage Uncertainty = 1.000000E-2
Sample Current = 9.976900E-1 Sample Current Uncertainty = 1.000000E-4
t(s)	T(K)	dT(K)
0.000000	6.052154	0.010000
0.112006	6.052727	0.010000
0.214012	6.054238	0.010000
0.317018	6.056088	0.010000
0.420024	6.059166	0.010000
0.522030	6.059869	0.010000
0.625036	6.058910	0.010000
0.728042	6.060849	0.010000
0.831048	6.061481	0.010000
0.933053	6.063629	0.010000
1.036059	6.064371	0.010000
1.138065	6.065824	0.010000
1.240071	6.063540	0.010000
1.343077	6.064548	0.010000
1.445083	6.065795	0.010000
1.547089	6.069682	0.010000
1.650095	6.066828	0.010000
1.752100	6.065949	0.010000
1.855106	6.068381	0.010000
1.958112	6.072045	0.010000
2.061118	6.073480	0.010000
2.163124	6.074906	0.010000
2.265130	6.075043	0.010000
2.367136	6.076525	0.010000
2.469141	6.077181	0.010000
2.571147	6.079631	0.010000
2.674153	6.076076	0.010000
2.777159	6.076360	0.010000
2.879165	6.082505	0.010000
2.981171	6.085359	0.010000
3.083176	6.085456	0.010000
3.185182	6.087657	0.010000
3.288188	6.087527	0.010000
3.391194	6.080474	0.010000
3.493200	6.092421	0.010000
3.596206	6.081024	0.010000
3.699212	6.091428	0.010000
3.802217	6.093492	0.010000
3.905223	6.100320	0.010000
4.008229	6.097473	0.010000
4.111235	6.086671	0.010000
4.214241	6.088278	0.010000
4.317247	6.097195	0.010000
4.419253	6.090377	0.010000
4.521258	6.084539	0.010000
4.623264	6.097312	0.010000
4.725270	6.083091	0.010000
4.827276	6.111750	0.010000
4.930282	6.084271	0.010000
5.033288	6.088147	0.010000
5.136294	6.113844	0.010000
5.239300	6.089819	0.010000
5.341305	6.098802	0.010000
5.443311	6.111877	0.010000
5.545317	6.117058	0.010000
5.647323	6.114463	0.010000
5.750329	6.104001	0.010000
5.853335	6.098532	0.010000
5.955340	6.096646	0.010000
6.057346	6.126752	0.010000
6.159352	6.121578	0.010000
6.262358	6.128788	0.010000
6.365364	6.109503	0.010000
6.468370	6.109341	0.010000
6.570376	6.132744	0.010000
6.673382	6.100765	0.010000
6.775387	6.105555	0.010000
6.878393	6.134091	0.010000
6.981399	6.103049	0.010000
7.083405	6.111935	0.010000
7.185411	6.112924	0.010000
7.288417	6.125804	0.010000
7.391423	6.121583	0.010000
7.493429	6.109622	0.010000
7.596435	6.133628	0.010000
7.699440	6.114866	0.010000
7.802446	6.141063	0.010000
7.904452	6.125701	0.010000
8.007458	6.140814	0.010000
8.109464	6.138889	0.010000
8.212470	6.140016	0.010000
8.314476	6.127413	0.010000
8.417481	6.139263	0.010000
8.519487	6.132705	0.010000
8.622493	6.141433	0.010000
8.724499	6.135386	0.010000
8.826505	6.138338	0.010000
8.928511	6.137422	0.010000
9.031517	6.138110	0.010000
9.133523	6.148449	0.010000
9.235528	6.150648	0.010000
9.338534	6.141741	0.010000
9.440540	6.142161	0.010000
9.542546	6.153646	0.010000
9.644552	6.147649	0.010000
9.746557	6.144802	0.010000
9.848563	6.157439	0.010000
9.950569	6.147598	0.010000
10.053575	6.154512	0.010000
10.156581	6.158652	0.010000
10.258587	6.158956	0.010000
10.360592	6.156356	0.010000
10.462598	6.156977	0.010000
10.564604	6.159439	0.010000
10.666610	6.159850	0.010000
10.768616	6.159713	0.010000
10.871622	6.162893	0.010000
10.974627	6.164397	0.010000
11.076633	6.162267	0.010000
11.178639	6.166817	0.010000
11.280645	6.166874	0.010000
11.382651	6.163754	0.010000
11.484657	6.169246	0.010000
11.586663	6.169353	0.010000
11.688669	6.171757	0.010000
11.791675	6.165533	0.010000
11.893680	6.173961	0.010000
11.995686	6.166932	0.010000
12.098692	6.168664	0.010000
12.200698	6.171884	0.010000
12.302704	6.172807	0.010000
12.404709	6.171564	0.010000
12.507715	6.178318	0.010000
12.609721	6.172200	0.010000
12.711727	6.175415	0.010000
12.814733	6.181089	0.010000
12.916739	6.179625	0.010000
13.018744	6.178632	0.010000
13.120750	6.177173	0.010000
13.222756	6.178977	0.010000
13.324762	6.179179	0.010000
13.426768	6.186393	0.010000
13.528774	6.187605	0.010000
13.630780	6.181091	0.010000
13.733786	6.184132	0.010000
13.835791	6.187224	0.010000
13.937797	6.188786	0.010000
14.039803	6.186783	0.010000
14.142809	6.189247	0.010000
14.244815	6.194296	0.010000
14.346820	6.193658	0.010000
14.448826	6.189548	0.010000
14.550832	6.191769	0.010000
14.652838	6.191728	0.010000
14.755844	6.196159	0.010000
14.858850	6.201199	0.010000
14.960855	6.194806	0.010000
15.062861	6.202491	0.010000
Sample : Ni
Pre-Pulse  Slope = 8.140195E-3 +/- 2.749310E-4 Intercept = 6.555885E+0 +/- 6.670238E-4 Residue = 5.871364E-9
Heat Pulse  Slope = 1.090540E-2 +/- 4.671087E-4 Intercept = 6.539800E+0 +/- 3.515712E-3 Residue = 1.023929E-8
Post-Pulse  Slope = 1.013334E-2 +/- 5.505364E-4 Intercept = 6.550225E+0 +/- 6.896449E-3 Residue = 1.422268E-8
Sample Voltage = 7.000000E-2 Sample Voltage Uncertainty = 1.000000E-2
Sample Current = 9.976800E-1 Sample Current Uncertainty = 1.000000E-4
t(s)	T(K)	dT(K)
0.000000	6.555558	0.010000
0.110006	6.556974	0.010000
0.212012	6.555705	0.010000
0.314018	6.556389	0.010000
0.417024	6.558192	0.010000
0.519030	6.561033	0.010000
0.622036	6.559227	0.010000
0.725041	6.560575	0.010000
0.827047	6.562811	0.010000
0.930053	6.563440	0.010000
1.033059	6.564661	0.010000
1.135065	6.565708	0.010000
1.238070	6.565059	0.010000
1.340076	6.567312	0.010000
1.442082	6.567048	0.010000
1.544088	6.568100	0.010000
1.647094	6.569426	0.010000
1.749100	6.570691	0.010000
1.852106	6.571914	0.010000
1.954112	6.572559	0.010000
2.056118	6.571691	0.010000
2.158123	6.574245	0.010000
2.260129	6.575602	0.010000
2.362135	6.574976	0.010000
2.464141	6.575421	0.010000
2.567147	6.576681	0.010000
2.669152	6.577250	0.010000
2.771158	6.579761	0.010000
2.874164	6.579406	0.010000
2.976170	6.579826	0.010000
3.078176	6.580931	0.010000
3.180182	6.581607	0.010000
3.282187	6.582963	0.010000
3.385193	6.582334	0.010000
3.487199	6.585091	0.010000
3.589205	6.584652	0.010000
3.691211	6.586717	0.010000
3.794217	6.586638	0.010000
3.897223	6.586062	0.010000
4.000229	6.588023	0.010000
4.102234	6.587422	0.010000
4.204240	6.589098	0.010000
4.306246	6.591515	0.010000
4.409252	6.592292	0.010000
4.511258	6.591703	0.010000
4.613264	6.592696	0.010000
4.715270	6.592491	0.010000
4.818275	6.595837	0.010000
4.920281	6.595902	0.010000
5.022287	6.593944	0.010000
5.124293	6.597809	0.010000
5.226299	6.598958	0.010000
5.328305	6.598180	0.010000
5.431311	6.601641	0.010000
5.534317	6.598520	0.010000
5.637322	6.599879	0.010000
5.740328	6.604155	0.010000
5.842334	6.604897	0.010000
5.944340	6.603670	0.010000
6.046346	6.604073	0.010000
6.148352	6.607512	0.010000
6.250357	6.606590	0.010000
6.353363	6.608959	0.010000
6.455369	6.608585	0.010000
6.558375	6.612180	0.010000
6.660381	6.613842	0.010000
6.762387	6.614419	0.010000
6.864392	6.613487	0.010000
6.966398	6.616944	0.010000
7.069404	6.617231	0.010000
7.171410	6.618446	0.010000
7.273416	6.618552	0.010000
7.375422	6.620428	0.010000
7.477427	6.622323	0.010000
7.579433	6.623397	0.010000
7.681439	6.623605	0.010000
7.784445	6.625383	0.010000
7.886451	6.627587	0.010000
7.988457	6.625557	0.010000
8.091463	6.628104	0.010000
8.193469	6.629660	0.010000
8.295475	6.630246	0.010000
8.397480	6.630201	0.010000
8.499486	6.631409	0.010000
8.602492	6.632842	0.010000
8.704498	6.633940	0.010000
8.807504	6.637541	0.010000
8.910510	6.636050	0.010000
9.013515	6.636887	0.010000
9.115521	6.639240	0.010000
9.218527	6.636845	0.010000
9.320533	6.641566	0.010000
9.422539	6.640497	0.010000
9.524545	6.644422	0.010000
9.627551	6.647157	0.010000
9.730556	6.648232	0.010000
9.833562	6.649220	0.010000
9.936568	6.647117	0.010000
10.038574	6.651279	0.010000
10.140580	6.651252	0.010000
10.243586	6.651375	0.010000
10.345592	6.656311	0.010000
10.448597	6.657522	0.010000
10.551603	6.657284	0.010000
10.654609	6.653224	0.010000
10.757615	6.656939	0.010000
10.860621	6.659190	0.010000
10.963627	6.663575	0.010000
11.065633	6.662761	0.010000
11.167639	6.660522	0.010000
11.270645	6.666565	0.010000
11.373651	6.667733	0.010000
11.476656	6.666913	0.010000
11.578662	6.668251	0.010000
11.680668	6.668402	0.010000
11.782674	6.671648	0.010000
11.884680	6.669019	0.010000
11.986685	6.672591	0.010000
12.088691	6.670222	0.010000
12.190697	6.673425	0.010000
12.292703	6.674794	0.010000
12.394709	6.675344	0.010000
12.496715	6.676474	0.010000
12.598721	6.676659	0.010000
12.700727	6.678821	0.010000
12.802732	6.679986	0.010000
12.904738	6.680453	0.010000
13.007744	6.682166	0.010000
13.109750	6.682083	0.010000
13.212756	6.683622	0.010000
13.315762	6.685032	0.010000
13.417767	6.685817	0.010000
13.520773	6.688448	0.010000
13.622779	6.688019	0.010000
13.725785	6.689055	0.010000
13.827791	6.691450	0.010000
13.929797	6.692857	0.010000
14.031803	6.686482	0.010000
14.134808	6.687486	0.010000
14.236814	6.691920	0.010000
14.338820	6.694788	0.010000
14.440826	6.692788	0.010000
14.543832	6.695296	0.010000
14.646838	6.701189	0.010000
14.748844	6.699594	0.010000
14.851850	6.701913	0.010000
14.953855	6.694733	0.010000
15.056861	6.687310	0.010000
Sample : Ni
Pre-Pulse  Slope = 1.074972E-2 +/- 3.121207E-3 Intercept = 7.051191E+0 +/- 7.580363E-3 Residue = 7.597394E-7
Heat Pulse  Slope = 1.048832E-2 +/- 5.872711E-3 Intercept = 7.047677E+0 +/- 4.424263E-2 Residue = 1.620711E-6
Post-Pulse  Slope = 8.823103E-3 +/- 1.476107E-3 Intercept = 7.065400E+0 +/- 1.848839E-2 Residue = 1.025207E-7
Sample Voltage = 7.500000E-2 Sample Voltage Uncertainty = 1.000000E-3
Sample Current = 9.977000E-1 Sample Current Uncertainty = 1.000000E-4
t(s)	T(K)	dT(K)
0.000000	7.056635	0.010000
0.111006	7.064537	0.010000
0.213012	7.058029	0.010000
0.315018	7.064388	0.010000
0.417024	7.054389	0.010000
0.519030	7.053563	0.010000
0.622036	7.060496	0.010000
0.725041	7.076264	0.010000
0.828047	7.065220	0.010000
0.931053	7.051233	0.010000
1.033059	7.054985	0.010000
1.135065	7.052486	0.010000
1.237071	7.054934	0.010000
1.339077	7.067177	0.010000
1.442082	7.070700	0.010000
1.544088	7.075283	0.010000
1.647094	7.081450	0.010000
1.750100	7.065272	0.010000
1.852106	7.078960	0.010000
1.954112	7.067645	0.010000
2.056118	7.085607	0.010000
2.159123	7.060872	0.010000
2.261129	7.090978	0.010000
2.364135	7.067664	0.010000
2.466141	7.078422	0.010000
